
Integration time [ms]:  10.000
Averaging Nr. [scans]: 100
Smoothing Nr. [pixels]: 0
Data measured with spectrometer [name]: 1307077U2
Wave   ;Sample   ;Dark     ;Reference;Scope Corrected for Dark
[nm]   ;[counts] ;[counts] ;[counts] 

 350.80;   15.940;    4.030;    0.000;11.91000
 351.10;    2.640;   -4.180;    0.000; 6.82000
 351.39;    1.670;    2.470;    0.000;-0.80000
 351.69;    2.060;   -5.160;    0.000; 7.22000
 351.99;    2.280;    6.180;    0.000;-3.90000
 352.28;   -3.750;  -10.540;    0.000; 6.79000
 352.58;    1.430;    5.710;    0.000;-4.28000
 352.88;    4.830;    5.210;    0.000;-0.38000
 353.17;    7.010;   14.010;    0.000;-7.00000
 353.47;    1.330;   -9.550;    0.000;10.88000
 353.76;    2.000;    8.350;    0.000;-6.35000
 354.06;    2.190;   -1.640;    0.000; 3.83000
 354.36;    4.930;    3.130;    0.000; 1.80000
 354.65;   13.100;    2.490;    0.000;10.61000
 354.95;   11.210;   -4.840;    0.000;16.05000
 355.24;    1.490;   -6.230;    0.000; 7.72000
 355.54;    1.240;    5.960;    0.000;-4.72000
 355.84;    3.520;   -2.430;    0.000; 5.95000
 356.13;   20.140;   14.640;    0.000; 5.50000
 356.43;   -4.980;  -16.650;    0.000;11.67000
 356.72;    2.520;   -2.860;    0.000; 5.38000
 357.02;    4.060;   -4.950;    0.000; 9.01000
 357.31;   15.550;   15.180;    0.000; 0.37000
 357.61;   14.900;    0.860;    0.000;14.04000
 357.91;   -1.580;   -0.030;    0.000;-1.55000
 358.20;    2.340;   -6.640;    0.000; 8.98000
 358.50;    4.860;   -1.800;    0.000; 6.66000
 358.79;    8.280;   -6.380;    0.000;14.66000
 359.09;    2.750;    7.630;    0.000;-4.88000
 359.38;    3.470;   -4.280;    0.000; 7.75000
 359.68;    0.900;   -3.990;    0.000; 4.89000
 359.98;    5.080;   -9.890;    0.000;14.97000
 360.27;    4.090;    3.120;    0.000; 0.97000
 360.57;   -5.860;   -9.860;    0.000; 4.00000
 360.86;   10.300;    4.120;    0.000; 6.18000
 361.16;   -1.900;   -9.770;    0.000; 7.87000
 361.45;    5.220;   -2.580;    0.000; 7.80000
 361.75;   -2.440;   -7.950;    0.000; 5.51000
 362.04;   29.160;   21.750;    0.000; 7.41000
 362.34;    8.790;  -10.000;    0.000;18.79000
 362.64;    0.990;    2.910;    0.000;-1.92000
 362.93;    0.340;   -9.640;    0.000; 9.98000
 363.23;   -4.380;   -0.950;    0.000;-3.43000
 363.52;   -6.900;   -9.960;    0.000; 3.06000
 363.82;   13.450;   -1.210;    0.000;14.66000
 364.11;    4.380;   -0.330;    0.000; 4.71000
 364.41;   -1.300;   -7.080;    0.000; 5.78000
 364.70;   -4.390;   -9.350;    0.000; 4.96000
 365.00;   10.640;    2.780;    0.000; 7.86000
 365.29;   -3.360;   -8.860;    0.000; 5.50000
 365.59;    3.570;   -0.230;    0.000; 3.80000
 365.88;   -0.510;  -13.770;    0.000;13.26000
 366.18;    6.700;   -0.050;    0.000; 6.75000
 366.47;   -0.750;   -8.130;    0.000; 7.38000
 366.77;    6.160;    1.200;    0.000; 4.96000
 367.06;    6.300;   -5.020;    0.000;11.32000
 367.36;    5.440;    8.050;    0.000;-2.61000
 367.65;    3.430;   -3.440;    0.000; 6.87000
 367.95;    4.520;   -3.460;    0.000; 7.98000
 368.24;    6.580;   -6.160;    0.000;12.74000
 368.54;   -3.080;   -1.860;    0.000;-1.22000
 368.83;   11.410;    4.430;    0.000; 6.98000
 369.13;   10.430;    3.080;    0.000; 7.35000
 369.42;    6.000;   -7.200;    0.000;13.20000
 369.72;    1.290;    1.890;    0.000;-0.60000
 370.01;    0.250;   -8.200;    0.000; 8.45000
 370.31;   11.210;    5.490;    0.000; 5.72000
 370.60;   16.220;    5.190;    0.000;11.03000
 370.90;    5.120;    2.280;    0.000; 2.84000
 371.19;   -6.440;  -14.890;    0.000; 8.45000
 371.49;   -2.220;   -5.010;    0.000; 2.79000
 371.78;   -2.920;  -15.390;    0.000;12.47000
 372.08;    9.240;   -0.720;    0.000; 9.96000
 372.37;   -0.370;   -7.980;    0.000; 7.61000
 372.67;   14.020;    7.150;    0.000; 6.87000
 372.96;   -0.540;   -8.630;    0.000; 8.09000
 373.26;    2.830;   -6.050;    0.000; 8.88000
 373.55;   -1.680;  -10.400;    0.000; 8.72000
 373.85;    1.170;   -8.440;    0.000; 9.61000
 374.14;    3.770;   -7.130;    0.000;10.90000
 374.43;   -1.700;    6.000;    0.000;-7.70000
 374.73;    4.680;   -8.200;    0.000;12.88000
 375.02;    8.050;    6.040;    0.000; 2.01000
 375.32;   -7.070;   -8.280;    0.000; 1.21000
 375.61;    1.350;   -4.320;    0.000; 5.67000
 375.91;   -3.060;  -10.610;    0.000; 7.55000
 376.20;   -6.760;  -11.900;    0.000; 5.14000
 376.50;    0.320;   -8.930;    0.000; 9.25000
 376.79;   -3.950;  -11.570;    0.000; 7.62000
 377.08;   -3.450;  -17.270;    0.000;13.82000
 377.38;   -1.910;    3.140;    0.000;-5.05000
 377.67;    5.310;   -4.850;    0.000;10.16000
 377.97;  -12.480;   -6.580;    0.000;-5.90000
 378.26;    3.240;  -11.160;    0.000;14.40000
 378.56;   -4.760;  -10.070;    0.000; 5.31000
 378.85;    7.310;   -2.180;    0.000; 9.49000
 379.14;   -3.480;   -4.480;    0.000; 1.00000
 379.44;   -4.160;  -12.520;    0.000; 8.36000
 379.73;    2.460;   -1.390;    0.000; 3.85000
 380.03;    0.400;    1.420;    0.000;-1.02000
 380.32;   -2.330;   -7.470;    0.000; 5.14000
 380.62;   -3.120;  -18.470;    0.000;15.35000
 380.91;    4.400;    0.800;    0.000; 3.60000
 381.20;   -4.510;  -15.290;    0.000;10.78000
 381.50;   -6.040;   -1.950;    0.000;-4.09000
 381.79;  -11.770;  -15.050;    0.000; 3.28000
 382.09;    5.910;    1.220;    0.000; 4.69000
 382.38;   -3.670;   -8.980;    0.000; 5.31000
 382.67;    2.230;   -6.760;    0.000; 8.99000
 382.97;    0.150;   -7.720;    0.000; 7.87000
 383.26;    2.730;    1.020;    0.000; 1.71000
 383.56;    2.030;  -10.020;    0.000;12.05000
 383.85;    2.190;   -6.070;    0.000; 8.26000
 384.14;   -2.740;  -14.150;    0.000;11.41000
 384.44;   -3.610;   -0.890;    0.000;-2.72000
 384.73;   -3.010;   -7.150;    0.000; 4.14000
 385.02;    5.730;   -2.920;    0.000; 8.65000
 385.32;   -5.090;   -3.830;    0.000;-1.26000
 385.61;   -7.000;  -13.580;    0.000; 6.58000
 385.91;    4.860;   -9.020;    0.000;13.88000
 386.20;   -3.370;  -14.970;    0.000;11.60000
 386.49;   -9.060;  -15.310;    0.000; 6.25000
 386.79;    4.230;   -6.270;    0.000;10.50000
 387.08;   -0.860;  -10.690;    0.000; 9.83000
 387.37;   -0.380;   -4.540;    0.000; 4.16000
 387.67;    1.860;  -13.490;    0.000;15.35000
 387.96;   -3.060;   -7.140;    0.000; 4.08000
 388.25;    0.110;  -13.000;    0.000;13.11000
 388.55;   -0.060;  -11.590;    0.000;11.53000
 388.84;  -12.450;  -13.480;    0.000; 1.03000
 389.14;    4.020;   -4.870;    0.000; 8.89000
 389.43;   -1.020;   -7.270;    0.000; 6.25000
 389.72;   -2.840;   -3.600;    0.000; 0.76000
 390.02;   -7.360;  -15.150;    0.000; 7.79000
 390.31;   -0.740;   -3.970;    0.000; 3.23000
 390.60;   -2.750;   -9.800;    0.000; 7.05000
 390.90;   -7.120;   -1.730;    0.000;-5.39000
 391.19;   -7.400;  -13.590;    0.000; 6.19000
 391.48;    3.530;   -4.990;    0.000; 8.52000
 391.78;   -0.380;   -6.390;    0.000; 6.01000
 392.07;   43.610;   36.750;    0.000; 6.86000
 392.36;   11.930;  -11.230;    0.000;23.16000
 392.66;   -2.060;   -8.300;    0.000; 6.24000
 392.95;    0.000;  -19.820;    0.000;19.82000
 393.24;   -7.790;  -11.730;    0.000; 3.94000
 393.53;   -1.810;  -15.730;    0.000;13.92000
 393.83;  -12.440;  -10.950;    0.000;-1.49000
 394.12;   -5.810;  -16.390;    0.000;10.58000
 394.41;   -3.300;   -7.450;    0.000; 4.15000
 394.71;   -0.950;  -12.950;    0.000;12.00000
 395.00;   -0.800;   -7.620;    0.000; 6.82000
 395.29;   -3.530;   -8.310;    0.000; 4.78000
 395.59;   -0.850;  -13.230;    0.000;12.38000
 395.88;   -6.360;   -9.550;    0.000; 3.19000
 396.17;  -11.990;  -10.600;    0.000;-1.39000
 396.46;   -1.560;   -2.150;    0.000; 0.59000
 396.76;   -4.400;   -5.400;    0.000; 1.00000
 397.05;   20.230;    1.250;    0.000;18.98000
 397.34;   -2.160;  -12.160;    0.000;10.00000
 397.64;   -8.280;  -11.990;    0.000; 3.71000
 397.93;   -7.200;  -10.290;    0.000; 3.09000
 398.22;   -2.080;  -20.930;    0.000;18.85000
 398.51;   -3.630;   -7.580;    0.000; 3.95000
 398.81;  -11.380;  -17.770;    0.000; 6.39000
 399.10;   -5.760;   -1.830;    0.000;-3.93000
 399.39;   -5.050;  -18.860;    0.000;13.81000
 399.69;    2.360;   -9.380;    0.000;11.74000
 399.98;   -1.930;  -11.540;    0.000; 9.61000
 400.27;   -3.620;  -15.330;    0.000;11.71000
 400.56;  -10.900;  -12.910;    0.000; 2.01000
 400.86;   -4.250;  -10.400;    0.000; 6.15000
 401.15;    2.830;   -6.510;    0.000; 9.34000
 401.44;    2.210;  -10.610;    0.000;12.82000
 401.73;    2.230;   -7.690;    0.000; 9.92000
 402.03;    3.620;   -4.040;    0.000; 7.66000
 402.32;   -9.060;  -19.160;    0.000;10.10000
 402.61;   -3.160;   -1.730;    0.000;-1.43000
 402.90;   -8.010;  -16.990;    0.000; 8.98000
 403.20;   -3.820;   -2.910;    0.000;-0.91000
 403.49;    8.540;   -9.760;    0.000;18.30000
 403.78;    2.260;  -11.610;    0.000;13.87000
 404.07;  -10.480;  -22.560;    0.000;12.08000
 404.37;    0.530;  -12.400;    0.000;12.93000
 404.66;   -4.580;  -17.920;    0.000;13.34000
 404.95;    6.350;   -3.130;    0.000; 9.48000
 405.24;   -7.900;  -14.390;    0.000; 6.49000
 405.53;   -4.920;   -6.780;    0.000; 1.86000
 405.83;    0.240;  -12.330;    0.000;12.57000
 406.12;   -3.860;  -19.690;    0.000;15.83000
 406.41;    4.430;   -3.820;    0.000; 8.25000
 406.70;   -7.150;   -6.390;    0.000;-0.76000
 407.00;    0.900;  -17.760;    0.000;18.66000
 407.29;   -1.560;   -5.640;    0.000; 4.08000
 407.58;   -9.970;  -18.150;    0.000; 8.18000
 407.87;   -5.870;  -10.380;    0.000; 4.51000
 408.16;  -11.400;  -17.260;    0.000; 5.86000
 408.46;   -7.510;  -12.130;    0.000; 4.62000
 408.75;   -6.870;  -15.780;    0.000; 8.91000
 409.04;    5.910;   -1.600;    0.000; 7.51000
 409.33;   -0.970;  -13.340;    0.000;12.37000
 409.62;    3.060;   -2.450;    0.000; 5.51000
 409.92;   -2.140;   -6.880;    0.000; 4.74000
 410.21;   -1.510;  -15.900;    0.000;14.39000
 410.50;  -14.460;  -20.780;    0.000; 6.32000
 410.79;    2.110;   -5.100;    0.000; 7.21000
 411.08;   -5.780;  -13.180;    0.000; 7.40000
 411.37;    1.810;   -8.590;    0.000;10.40000
 411.67;   -4.250;  -14.900;    0.000;10.65000
 411.96;   -6.700;  -12.600;    0.000; 5.90000
 412.25;   -7.730;  -17.930;    0.000;10.20000
 412.54;   -4.260;  -12.620;    0.000; 8.36000
 412.83;   -4.850;  -16.690;    0.000;11.84000
 413.13;   -5.270;   -9.100;    0.000; 3.83000
 413.42;   -9.560;  -21.200;    0.000;11.64000
 413.71;   -1.830;   -1.600;    0.000;-0.23000
 414.00;   -7.540;  -26.150;    0.000;18.61000
 414.29;    2.730;   -3.360;    0.000; 6.09000
 414.58;   -7.960;  -19.610;    0.000;11.65000
 414.87;    0.960;  -12.000;    0.000;12.96000
 415.17;   -9.360;  -17.230;    0.000; 7.87000
 415.46;   -1.090;   -8.680;    0.000; 7.59000
 415.75;    0.300;   -6.700;    0.000; 7.00000
 416.04;    8.730;  -10.910;    0.000;19.64000
 416.33;   -5.510;  -11.250;    0.000; 5.74000
 416.62;   -7.780;  -15.020;    0.000; 7.24000
 416.91;   -9.880;  -12.540;    0.000; 2.66000
 417.21;   -7.630;  -13.820;    0.000; 6.19000
 417.50;   -9.730;  -22.670;    0.000;12.94000
 417.79;   -0.590;  -14.150;    0.000;13.56000
 418.08;   -3.820;  -22.610;    0.000;18.79000
 418.37;   -1.460;   -8.440;    0.000; 6.98000
 418.66;   -7.460;  -12.690;    0.000; 5.23000
 418.95;   11.610;   -4.060;    0.000;15.67000
 419.24;   -8.770;  -16.540;    0.000; 7.77000
 419.54;   -1.640;   -4.710;    0.000; 3.07000
 419.83;   -1.920;  -17.210;    0.000;15.29000
 420.12;   -6.020;   -9.330;    0.000; 3.31000
 420.41;    2.690;   -1.720;    0.000; 4.41000
 420.70;   -9.830;  -12.920;    0.000; 3.09000
 420.99;    3.990;  -13.160;    0.000;17.15000
 421.28;   -4.140;   -9.530;    0.000; 5.39000
 421.57;   -3.570;  -19.200;    0.000;15.63000
 421.86;    7.490;   -0.530;    0.000; 8.02000
 422.16;   -5.600;  -11.590;    0.000; 5.99000
 422.45;   -3.250;  -15.740;    0.000;12.49000
 422.74;  -10.760;  -14.600;    0.000; 3.84000
 423.03;    4.300;   -1.000;    0.000; 5.30000
 423.32;   -7.590;  -19.120;    0.000;11.53000
 423.61;    6.060;   -1.410;    0.000; 7.47000
 423.90;    0.670;  -14.280;    0.000;14.95000
 424.19;   21.750;   17.330;    0.000; 4.42000
 424.48;   -2.830;  -13.500;    0.000;10.67000
 424.77;    4.150;   -7.810;    0.000;11.96000
 425.06;  -10.590;  -11.550;    0.000; 0.96000
 425.35;    9.490;   -2.890;    0.000;12.38000
 425.65;  -15.230;  -19.130;    0.000; 3.90000
 425.94;   -7.240;  -14.880;    0.000; 7.64000
 426.23;   -4.810;  -24.160;    0.000;19.35000
 426.52;  -10.610;  -15.130;    0.000; 4.52000
 426.81;    5.550;   -2.380;    0.000; 7.93000
 427.10;   -8.930;  -14.170;    0.000; 5.24000
 427.39;   -6.490;  -18.300;    0.000;11.81000
 427.68;    1.370;   -9.370;    0.000;10.74000
 427.97;    6.160;  -14.330;    0.000;20.49000
 428.26;  -10.740;  -19.050;    0.000; 8.31000
 428.55;    3.080;   -8.910;    0.000;11.99000
 428.84;   -0.140;   -4.380;    0.000; 4.24000
 429.13;   -2.510;  -14.120;    0.000;11.61000
 429.42;    0.500;   -1.830;    0.000; 2.33000
 429.71;   -6.840;  -11.710;    0.000; 4.87000
 430.00;    2.460;  -13.910;    0.000;16.37000
 430.29;  -13.950;  -25.330;    0.000;11.38000
 430.58;   -3.680;  -14.890;    0.000;11.21000
 430.87;   -3.290;  -16.420;    0.000;13.13000
 431.16;   -8.460;  -20.530;    0.000;12.07000
 431.46;   -7.440;  -12.910;    0.000; 5.47000
 431.75;  -12.640;  -19.130;    0.000; 6.49000
 432.04;    6.040;   -8.890;    0.000;14.93000
 432.33;  -11.130;  -20.210;    0.000; 9.08000
 432.62;    0.540;   -9.300;    0.000; 9.84000
 432.91;   -8.480;  -13.020;    0.000; 4.54000
 433.20;   -0.150;  -18.270;    0.000;18.12000
 433.49;   -5.240;  -14.130;    0.000; 8.89000
 433.78;  -15.960;  -23.820;    0.000; 7.86000
 434.07;   -6.620;  -16.610;    0.000; 9.99000
 434.36;  -10.490;  -16.950;    0.000; 6.46000
 434.65;  -11.970;  -27.030;    0.000;15.06000
 434.94;   -2.370;  -19.310;    0.000;16.94000
 435.23;    2.880;   -5.090;    0.000; 7.97000
 435.52;   -3.150;  -13.640;    0.000;10.49000
 435.81;   -2.740;   -6.560;    0.000; 3.82000
 436.10;    0.900;  -18.360;    0.000;19.26000
 436.39;    4.250;   -1.810;    0.000; 6.06000
 436.68;   -0.990;  -11.450;    0.000;10.46000
 436.97;  -14.940;  -11.940;    0.000;-3.00000
 437.26;  -10.710;  -15.160;    0.000; 4.45000
 437.55;   -0.850;   -9.340;    0.000; 8.49000
 437.83;  -10.580;  -24.130;    0.000;13.55000
 438.12;  -20.870;  -18.050;    0.000;-2.82000
 438.41;   -6.120;  -16.450;    0.000;10.33000
 438.70;   15.350;    5.100;    0.000;10.25000
 438.99;    1.420;   -6.560;    0.000; 7.98000
 439.28;   -1.380;  -16.310;    0.000;14.93000
 439.57;   -9.600;  -26.570;    0.000;16.97000
 439.86;   -9.320;  -22.850;    0.000;13.53000
 440.15;   -3.360;  -18.290;    0.000;14.93000
 440.44;   -0.370;  -10.400;    0.000;10.03000
 440.73;   -7.510;  -18.710;    0.000;11.20000
 441.02;  -12.010;  -12.870;    0.000; 0.86000
 441.31;   -3.310;  -12.510;    0.000; 9.20000
 441.60;    1.170;   -5.700;    0.000; 6.87000
 441.89;  -17.320;  -20.000;    0.000; 2.68000
 442.18;   -2.230;  -17.290;    0.000;15.06000
 442.47;   -8.960;  -23.560;    0.000;14.60000
 442.76;   -6.700;  -22.050;    0.000;15.35000
 443.05;   -0.850;  -10.700;    0.000; 9.85000
 443.34;   -9.480;  -15.160;    0.000; 5.68000
 443.63;   -8.600;  -23.400;    0.000;14.80000
 443.91;   -1.000;  -12.690;    0.000;11.69000
 444.20;   -7.200;  -20.000;    0.000;12.80000
 444.49;  -10.020;  -19.950;    0.000; 9.93000
 444.78;   -5.890;  -18.340;    0.000;12.45000
 445.07;    7.090;   -5.870;    0.000;12.96000
 445.36;  -15.950;  -26.980;    0.000;11.03000
 445.65;   -8.420;  -13.340;    0.000; 4.92000
 445.94;   -1.430;  -18.160;    0.000;16.73000
 446.23;    0.060;  -10.830;    0.000;10.89000
 446.52;    3.800;  -19.630;    0.000;23.43000
 446.81;    0.570;   -3.250;    0.000; 3.82000
 447.10;   -6.230;  -16.850;    0.000;10.62000
 447.38;   -6.090;   -9.000;    0.000; 2.91000
 447.67;   -2.920;  -16.460;    0.000;13.54000
 447.96;  -10.680;  -15.930;    0.000; 5.25000
 448.25;    1.050;  -11.520;    0.000;12.57000
 448.54;   -8.480;  -14.940;    0.000; 6.46000
 448.83;  -10.650;  -23.010;    0.000;12.36000
 449.12;   -7.520;  -12.830;    0.000; 5.31000
 449.41;   -2.720;  -21.820;    0.000;19.10000
 449.70;   -5.980;  -15.120;    0.000; 9.14000
 449.98;  -16.860;  -24.820;    0.000; 7.96000
 450.27;    4.070;  -10.730;    0.000;14.80000
 450.56;  -10.940;  -32.070;    0.000;21.13000
 450.85;   -2.740;  -17.010;    0.000;14.27000
 451.14;  -10.810;  -19.960;    0.000; 9.15000
 451.43;   -7.930;  -22.330;    0.000;14.40000
 451.72;  -10.170;  -25.220;    0.000;15.05000
 452.01;    7.110;   -8.480;    0.000;15.59000
 452.29;   -9.580;  -25.040;    0.000;15.46000
 452.58;  -10.190;  -19.810;    0.000; 9.62000
 452.87;   -7.020;  -25.340;    0.000;18.32000
 453.16;   -6.940;  -19.590;    0.000;12.65000
 453.45;   -6.790;  -18.650;    0.000;11.86000
 453.74;   -1.630;  -12.950;    0.000;11.32000
 454.03;   -7.110;  -24.100;    0.000;16.99000
 454.31;   -8.390;  -16.240;    0.000; 7.85000
 454.60;  -10.820;  -19.330;    0.000; 8.51000
 454.89;    8.900;  -11.120;    0.000;20.02000
 455.18;   -8.530;  -27.130;    0.000;18.60000
 455.47;  -16.650;  -21.170;    0.000; 4.52000
 455.76;   -4.060;  -24.610;    0.000;20.55000
 456.04;   -8.450;  -11.030;    0.000; 2.58000
 456.33;   -3.760;  -18.760;    0.000;15.00000
 456.62;   -7.350;  -19.610;    0.000;12.26000
 456.91;  -18.380;  -28.380;    0.000;10.00000
 457.20;    1.620;   -5.630;    0.000; 7.25000
 457.49;  -10.340;  -27.200;    0.000;16.86000
 457.77;  -12.710;  -17.300;    0.000; 4.59000
 458.06;   -9.070;  -18.500;    0.000; 9.43000
 458.35;   -9.380;  -17.400;    0.000; 8.02000
 458.64;  -10.550;  -24.560;    0.000;14.01000
 458.93;   -6.760;  -18.030;    0.000;11.27000
 459.21;   -8.250;  -24.490;    0.000;16.24000
 459.50;  -10.300;  -10.930;    0.000; 0.63000
 459.79;  -11.520;  -29.690;    0.000;18.17000
 460.08;   -6.930;  -20.110;    0.000;13.18000
 460.37;   -4.090;  -20.120;    0.000;16.03000
 460.65;   -2.920;  -13.690;    0.000;10.77000
 460.94;   -9.070;  -23.190;    0.000;14.12000
 461.23;   -4.470;  -21.260;    0.000;16.79000
 461.52;    6.400;   -7.100;    0.000;13.50000
 461.81;   -5.190;  -22.900;    0.000;17.71000
 462.09;   -6.980;  -18.640;    0.000;11.66000
 462.38;  -14.280;  -21.600;    0.000; 7.32000
 462.67;  -14.630;  -27.600;    0.000;12.97000
 462.96;   -9.290;  -18.400;    0.000; 9.11000
 463.24;  -12.350;  -21.500;    0.000; 9.15000
 463.53;   -1.840;  -11.730;    0.000; 9.89000
 463.82;  -10.570;  -24.760;    0.000;14.19000
 464.11;   -5.730;  -21.340;    0.000;15.61000
 464.40;  -10.710;  -28.780;    0.000;18.07000
 464.68;  -12.980;  -25.400;    0.000;12.42000
 464.97;   -4.080;  -22.490;    0.000;18.41000
 465.26;   -4.810;  -12.310;    0.000; 7.50000
 465.55;   -7.590;  -25.340;    0.000;17.75000
 465.83;   -1.650;  -16.630;    0.000;14.98000
 466.12;  -17.040;  -27.950;    0.000;10.91000
 466.41;   -1.080;  -13.760;    0.000;12.68000
 466.70;   -8.750;  -27.320;    0.000;18.57000
 466.98;   -7.100;  -19.100;    0.000;12.00000
 467.27;   -2.540;  -15.890;    0.000;13.35000
 467.56;    0.560;   -3.140;    0.000; 3.70000
 467.85;   -2.320;  -21.160;    0.000;18.84000
 468.13;   -0.900;  -10.210;    0.000; 9.31000
 468.42;   -3.750;  -21.810;    0.000;18.06000
 468.71;   -3.800;  -21.960;    0.000;18.16000
 468.99;   -1.440;  -23.670;    0.000;22.23000
 469.28;   -9.770;  -23.740;    0.000;13.97000
 469.57;   -8.770;  -24.310;    0.000;15.54000
 469.86;   -1.890;  -17.130;    0.000;15.24000
 470.14;   -4.440;  -27.390;    0.000;22.95000
 470.43;   16.420;   -3.080;    0.000;19.50000
